#K-Path(1/A) Energy-Level(eV)
# NKPTS & NBANDS:  60  24
# Band-Index    1
   0.00000    -61.051470
   0.05997    -61.051235
   0.11993    -61.050543
   0.17990    -61.049331
   0.23987    -61.047584
   0.29983    -61.045572
   0.35980    -61.043224
   0.41977    -61.040574
   0.47974    -61.037671
   0.53970    -61.034575
   0.59967    -61.031543
   0.65964    -61.028483
   0.71960    -61.025682
   0.77957    -61.023089
   0.83954    -61.020659
   0.89950    -61.018492
   0.95947    -61.016868
   1.01944    -61.015670
   1.07940    -61.014977
   1.13937    -61.014613
   1.13937    -61.014613
   1.17399    -61.014625
   1.20861    -61.014494
   1.24324    -61.014316
   1.27786    -61.014190
   1.31248    -61.013890
   1.34710    -61.013654
   1.38172    -61.013298
   1.41635    -61.012875
   1.45097    -61.012459
   1.48559    -61.012082
   1.52021    -61.011703
   1.55483    -61.011389
   1.58946    -61.011032
   1.62408    -61.010743
   1.65870    -61.010542
   1.69332    -61.010256
   1.72794    -61.010163
   1.76257    -61.010041
   1.79719    -61.010045
   1.79719    -61.010045
   1.86643    -61.010093
   1.93568    -61.010626
   2.00492    -61.011691
   2.07416    -61.013111
   2.14341    -61.015037
   2.21265    -61.017338
   2.28189    -61.020195
   2.35114    -61.023305
   2.42038    -61.026570
   2.48963    -61.030177
   2.55887    -61.033818
   2.62811    -61.037331
   2.69736    -61.040743
   2.76660    -61.043644
   2.83584    -61.046411
   2.90509    -61.048626
   2.97433    -61.050235
   3.04358    -61.051108
   3.11282    -61.051470
 
# Band-Index    2
   3.11282    -35.216446
   3.04358    -35.215900
   2.97433    -35.213884
   2.90509    -35.210745
   2.83584    -35.206147
   2.76660    -35.200686
   2.69736    -35.194725
   2.62811    -35.188115
   2.55887    -35.180991
   2.48963    -35.211459
   2.42038    -35.239613
   2.35114    -35.264845
   2.28189    -35.285087
   2.21265    -35.300088
   2.14341    -35.309736
   2.07416    -35.313243
   2.00492    -35.311474
   1.93568    -35.304448
   1.86643    -35.294612
   1.79719    -35.288500
   1.79719    -35.288500
   1.76257    -35.290456
   1.72794    -35.295802
   1.69332    -35.302578
   1.65870    -35.310161
   1.62408    -35.317691
   1.58946    -35.325251
   1.55483    -35.332570
   1.52021    -35.339467
   1.48559    -35.346001
   1.45097    -35.352035
   1.41635    -35.357779
   1.38172    -35.362739
   1.34710    -35.367084
   1.31248    -35.370540
   1.27786    -35.373671
   1.24324    -35.376080
   1.20861    -35.377690
   1.17399    -35.378747
   1.13937    -35.379094
   1.13937    -35.379094
   1.07940    -35.377067
   1.01944    -35.369496
   0.95947    -35.357707
   0.89950    -35.341028
   0.83954    -35.321190
   0.77957    -35.297740
   0.71960    -35.271199
   0.65964    -35.242392
   0.59967    -35.212622
   0.53970    -35.182695
   0.47974    -35.188958
   0.41977    -35.194950
   0.35980    -35.200154
   0.29983    -35.204302
   0.23987    -35.208276
   0.17990    -35.212168
   0.11993    -35.214603
   0.05997    -35.216147
   0.00000    -35.216446
 
# Band-Index    3
   0.00000    -35.008216
   0.05997    -35.011110
   0.11993    -35.019244
   0.17990    -35.032069
   0.23987    -35.049116
   0.29983    -35.070490
   0.35980    -35.095029
   0.41977    -35.122487
   0.47974    -35.151881
   0.53970    -35.181995
   0.59967    -35.176543
   0.65964    -35.170209
   0.71960    -35.164588
   0.77957    -35.159648
   0.83954    -35.154759
   0.89950    -35.150353
   0.95947    -35.146858
   1.01944    -35.144751
   1.07940    -35.143217
   1.13937    -35.142576
   1.13937    -35.142576
   1.17399    -35.142537
   1.20861    -35.142086
   1.24324    -35.141842
   1.27786    -35.141584
   1.31248    -35.140828
   1.34710    -35.140368
   1.38172    -35.139775
   1.41635    -35.139036
   1.45097    -35.147261
   1.48559    -35.158136
   1.52021    -35.169448
   1.55483    -35.181513
   1.58946    -35.193509
   1.62408    -35.205385
   1.65870    -35.216998
   1.69332    -35.227386
   1.72794    -35.236835
   1.76257    -35.243427
   1.79719    -35.246147
   1.79719    -35.246147
   1.86643    -35.237338
   1.93568    -35.220280
   2.00492    -35.200982
   2.07416    -35.180792
   2.14341    -35.160812
   2.21265    -35.148100
   2.28189    -35.153992
   2.35114    -35.160151
   2.42038    -35.166750
   2.48963    -35.173913
   2.55887    -35.180883
   2.62811    -35.149011
   2.69736    -35.117749
   2.76660    -35.087260
   2.83584    -35.061517
   2.90509    -35.039409
   2.97433    -35.022706
   3.04358    -35.011912
   3.11282    -35.008216
 
# Band-Index    4
   3.11282    -35.008185
   3.04358    -35.008716
   2.97433    -35.011807
   2.90509    -35.015799
   2.83584    -35.021316
   2.76660    -35.028514
   2.69736    -35.037903
   2.62811    -35.047953
   2.55887    -35.060164
   2.48963    -35.073440
   2.42038    -35.088142
   2.35114    -35.104902
   2.28189    -35.122727
   2.21265    -35.141286
   2.14341    -35.143559
   2.07416    -35.139670
   2.00492    -35.136598
   1.93568    -35.134098
   1.86643    -35.133038
   1.79719    -35.133230
   1.79719    -35.133230
   1.76257    -35.133227
   1.72794    -35.133275
   1.69332    -35.133415
   1.65870    -35.134031
   1.62408    -35.134362
   1.58946    -35.134912
   1.55483    -35.136005
   1.52021    -35.136768
   1.48559    -35.137527
   1.45097    -35.138260
   1.41635    -35.136980
   1.38172    -35.128147
   1.34710    -35.120045
   1.31248    -35.112638
   1.27786    -35.106777
   1.24324    -35.101510
   1.20861    -35.098521
   1.17399    -35.096498
   1.13937    -35.095416
   1.13937    -35.095416
   1.07940    -35.095198
   1.01944    -35.093289
   0.95947    -35.090404
   0.89950    -35.086505
   0.83954    -35.081970
   0.77957    -35.076423
   0.71960    -35.069991
   0.65964    -35.063044
   0.59967    -35.056024
   0.53970    -35.048736
   0.47974    -35.041907
   0.41977    -35.035143
   0.35980    -35.028713
   0.29983    -35.023022
   0.23987    -35.017855
   0.17990    -35.013814
   0.11993    -35.010866
   0.05997    -35.008711
   0.00000    -35.008185
 
# Band-Index    5
   0.00000    -14.292768
   0.05997    -14.282467
   0.11993    -14.251689
   0.17990    -14.200944
   0.23987    -14.130994
   0.29983    -14.042998
   0.35980    -13.938387
   0.41977    -13.818923
   0.47974    -13.686786
   0.53970    -13.544494
   0.59967    -13.395046
   0.65964    -13.241856
   0.71960    -13.088854
   0.77957    -12.940457
   0.83954    -12.801606
   0.89950    -12.677547
   0.95947    -12.573690
   1.01944    -12.495101
   1.07940    -12.446042
   1.13937    -12.429304
   1.13937    -12.429304
   1.17399    -12.427794
   1.20861    -12.423246
   1.24324    -12.415780
   1.27786    -12.405515
   1.31248    -12.392623
   1.34710    -12.377384
   1.38172    -12.360076
   1.41635    -12.341050
   1.45097    -12.320713
   1.48559    -12.299519
   1.52021    -12.277960
   1.55483    -12.256605
   1.58946    -12.235981
   1.62408    -12.216718
   1.65870    -12.199476
   1.69332    -12.184879
   1.72794    -12.173649
   1.76257    -12.166423
   1.79719    -12.163881
   1.79719    -12.163881
   1.86643    -12.175207
   1.93568    -12.211775
   2.00492    -12.276236
   2.07416    -12.369172
   2.14341    -12.489051
   2.21265    -12.632345
   2.28189    -12.794081
   2.35114    -12.968383
   2.42038    -13.149160
   2.48963    -13.330587
   2.55887    -13.507259
   2.62811    -13.674308
   2.69736    -13.827516
   2.76660    -13.963280
   2.83584    -14.078559
   2.90509    -14.170803
   2.97433    -14.238097
   3.04358    -14.279029
   3.11282    -14.292768
 
# Band-Index    6
   3.11282    -12.989424
   3.04358    -12.983798
   2.97433    -12.967028
   2.90509    -12.939445
   2.83584    -12.901614
   2.76660    -12.854379
   2.69736    -12.798751
   2.62811    -12.735959
   2.55887    -12.667444
   2.48963    -12.594898
   2.42038    -12.520154
   2.35114    -12.445261
   2.28189    -12.372361
   2.21265    -12.303769
   2.14341    -12.241799
   2.07416    -12.188595
   2.00492    -12.146009
   1.93568    -12.115366
   1.86643    -12.097290
   1.79719    -12.091506
   1.79719    -12.091506
   1.76257    -12.092854
   1.72794    -12.096769
   1.69332    -12.102970
   1.65870    -12.111160
   1.62408    -12.120988
   1.58946    -12.132107
   1.55483    -12.144200
   1.52021    -12.156854
   1.48559    -12.169735
   1.45097    -12.182501
   1.41635    -12.194832
   1.38172    -12.206445
   1.34710    -12.217062
   1.31248    -12.226446
   1.27786    -12.234415
   1.24324    -12.240774
   1.20861    -12.245416
   1.17399    -12.248242
   1.13937    -12.249188
   1.13937    -12.249188
   1.07940    -12.255368
   1.01944    -12.273582
   0.95947    -12.302978
   0.89950    -12.342240
   0.83954    -12.389763
   0.77957    -12.443608
   0.71960    -12.501816
   0.65964    -12.562482
   0.59967    -12.623804
   0.53970    -12.684043
   0.47974    -12.741731
   0.41977    -12.795533
   0.35980    -12.844298
   0.29983    -12.887083
   0.23987    -12.923117
   0.17990    -12.951800
   0.11993    -12.972601
   0.05997    -12.985206
   0.00000    -12.989424
 
# Band-Index    7
   0.00000     -5.818409
   0.05997     -5.806449
   0.11993     -5.770818
   0.17990     -5.713000
   0.23987     -5.635292
   0.29983     -5.542580
   0.35980     -5.440981
   0.41977     -5.339915
   0.47974     -5.253293
   0.53970     -5.200547
   0.59967     -5.200139
   0.65964     -5.256497
   0.71960     -5.356101
   0.77957     -5.477878
   0.83954     -5.604181
   0.89950     -5.722909
   0.95947     -5.824909
   1.01944     -5.902713
   1.07940     -5.951757
   1.13937     -5.967971
   1.13937     -5.967971
   1.17399     -5.963441
   1.20861     -5.949782
   1.24324     -5.927410
   1.27786     -5.895968
   1.31248     -5.855750
   1.34710     -5.807371
   1.38172     -5.750765
   1.41635     -5.686430
   1.45097     -5.614522
   1.48559     -5.536162
   1.52021     -5.451650
   1.55483     -5.400727
   1.58946     -5.447845
   1.62408     -5.490979
   1.65870     -5.528574
   1.69332     -5.559239
   1.72794     -5.582309
   1.76257     -5.596690
   1.79719     -5.601765
   1.79719     -5.601765
   1.86643     -5.580604
   1.93568     -5.516546
   2.00492     -5.407889
   2.07416     -5.271063
   2.14341     -5.315345
   2.21265     -5.313556
   2.28189     -5.274150
   2.35114     -5.210950
   2.42038     -5.146924
   2.48963     -5.114657
   2.55887     -5.140331
   2.62811     -5.222111
   2.69736     -5.336887
   2.76660     -5.461060
   2.83584     -5.578771
   2.90509     -5.679244
   2.97433     -5.755227
   3.04358     -5.802395
   3.11282     -5.818409
 
# Band-Index    8
   3.11282     -2.817318
   3.04358     -2.849595
   2.97433     -2.942674
   2.90509     -3.086783
   2.83584     -3.267081
   2.76660     -3.465905
   2.69736     -3.666618
   2.62811     -3.844466
   2.55887     -3.974292
   2.48963     -4.032064
   2.42038     -4.017596
   2.35114     -4.293255
   2.28189     -4.573421
   2.21265     -4.832614
   2.14341     -5.062272
   2.07416     -5.255406
   2.00492     -5.177556
   1.93568     -5.039403
   1.86643     -4.880796
   1.79719     -4.790379
   1.79719     -4.790379
   1.76257     -4.817140
   1.72794     -4.885366
   1.69332     -4.973937
   1.65870     -5.070871
   1.62408     -5.169583
   1.58946     -5.267299
   1.55483     -5.361730
   1.52021     -5.350758
   1.48559     -5.299422
   1.45097     -5.248126
   1.41635     -5.198312
   1.38172     -5.151481
   1.34710     -5.108705
   1.31248     -5.070873
   1.27786     -5.039230
   1.24324     -5.014097
   1.20861     -4.996045
   1.17399     -4.985081
   1.13937     -4.981412
   1.13937     -4.981412
   1.07940     -4.964763
   1.01944     -4.915123
   0.95947     -4.834314
   0.89950     -4.724458
   0.83954     -4.589689
   0.77957     -4.433087
   0.71960     -4.258444
   0.65964     -4.089993
   0.59967     -4.053918
   0.53970     -3.973405
   0.47974     -3.847125
   0.41977     -3.687925
   0.35980     -3.511651
   0.29983     -3.334436
   0.23987     -3.167628
   0.17990     -3.023970
   0.11993     -2.912197
   0.05997     -2.841720
   0.00000     -2.817318
 
# Band-Index    9
   0.00000     -2.817302
   0.05997     -2.806608
   0.11993     -2.774255
   0.17990     -2.721272
   0.23987     -2.648828
   0.29983     -2.840564
   0.35980     -3.047235
   0.41977     -3.254775
   0.47974     -3.462705
   0.53970     -3.669567
   0.59967     -3.872790
   0.65964     -4.069885
   0.71960     -4.102318
   0.77957     -4.113281
   0.83954     -4.134749
   0.89950     -4.167564
   0.95947     -4.205443
   1.01944     -4.239873
   1.07940     -4.263454
   1.13937     -4.271568
   1.13937     -4.271568
   1.17399     -4.270190
   1.20861     -4.265189
   1.24324     -4.257258
   1.27786     -4.246895
   1.31248     -4.233597
   1.34710     -4.218177
   1.38172     -4.201011
   1.41635     -4.182488
   1.45097     -4.163681
   1.48559     -4.144880
   1.52021     -4.127130
   1.55483     -4.112361
   1.58946     -4.101137
   1.62408     -4.097676
   1.65870     -4.106806
   1.69332     -4.135453
   1.72794     -4.185325
   1.76257     -4.239064
   1.79719     -4.263970
   1.79719     -4.263970
   1.86643     -4.169919
   1.93568     -4.001370
   2.00492     -3.880947
   2.07416     -3.829634
   2.14341     -3.821069
   2.21265     -3.844428
   2.28189     -3.894832
   2.35114     -3.960281
   2.42038     -4.006941
   2.48963     -3.741509
   2.55887     -3.521477
   2.62811     -3.333612
   2.69736     -3.148049
   2.76660     -2.950244
   2.83584     -2.740716
   2.90509     -2.690847
   2.97433     -2.760295
   3.04358     -2.802692
   3.11282     -2.817302
 
# Band-Index   10
   3.11282     -1.978875
   3.04358     -2.096917
   2.97433     -2.301832
   2.90509     -2.521881
   2.83584     -2.598150
   2.76660     -2.487292
   2.69736     -2.563636
   2.62811     -2.835924
   2.55887     -3.100397
   2.48963     -3.310362
   2.42038     -3.440057
   2.35114     -3.505509
   2.28189     -3.522927
   2.21265     -3.501587
   2.14341     -3.449040
   2.07416     -3.371466
   2.00492     -3.515047
   1.93568     -3.667145
   1.86643     -3.740800
   1.79719     -3.765879
   1.79719     -3.765879
   1.76257     -3.756778
   1.72794     -3.722333
   1.69332     -3.650404
   1.65870     -3.537669
   1.62408     -3.391921
   1.58946     -3.235502
   1.55483     -3.268440
   1.52021     -3.298159
   1.48559     -3.323663
   1.45097     -3.344241
   1.41635     -3.359390
   1.38172     -3.369975
   1.34710     -3.375911
   1.31248     -3.377587
   1.27786     -3.376495
   1.24324     -3.373178
   1.20861     -3.370565
   1.17399     -3.368367
   1.13937     -3.367469
   1.13937     -3.367469
   1.07940     -3.359354
   1.01944     -3.334617
   0.95947     -3.294080
   0.89950     -3.238225
   0.83954     -3.167625
   0.77957     -3.082517
   0.71960     -2.983598
   0.65964     -2.872798
   0.59967     -2.752152
   0.53970     -2.622780
   0.47974     -2.487784
   0.41977     -2.349652
   0.35980     -2.451554
   0.29983     -2.558225
   0.23987     -2.636305
   0.17990     -2.436930
   0.11993     -2.245222
   0.05997     -2.072754
   0.00000     -1.978875
 
# Band-Index   11
   0.00000     -1.709398
   0.05997     -1.726930
   0.11993     -1.778308
   0.17990     -1.857797
   0.23987     -1.960786
   0.29983     -2.081371
   0.35980     -2.212836
   0.41977     -2.332005
   0.47974     -2.201746
   0.53970     -2.064872
   0.59967     -1.926394
   0.65964     -1.789915
   0.71960     -1.776397
   0.77957     -1.858895
   0.83954     -1.928494
   0.89950     -1.984561
   0.95947     -2.027714
   1.01944     -2.058249
   1.07940     -2.076179
   1.13937     -2.081836
   1.13937     -2.081836
   1.17399     -2.080769
   1.20861     -2.077744
   1.24324     -2.073652
   1.27786     -2.069331
   1.31248     -2.065338
   1.34710     -2.064420
   1.38172     -2.082518
   1.41635     -2.271074
   1.45097     -2.464141
   1.48559     -2.659082
   1.52021     -2.852889
   1.55483     -3.043186
   1.58946     -3.224318
   1.62408     -3.200481
   1.65870     -3.165054
   1.69332     -3.131068
   1.72794     -3.102513
   1.76257     -3.082667
   1.79719     -3.075552
   1.79719     -3.075552
   1.86643     -3.105108
   1.93568     -3.181783
   2.00492     -3.277917
   2.07416     -3.293516
   2.14341     -3.048071
   2.21265     -2.802345
   2.28189     -2.570538
   2.35114     -2.368387
   2.42038     -2.219735
   2.48963     -2.152994
   2.55887     -2.173279
   2.62811     -2.255581
   2.69736     -2.368614
   2.76660     -2.310012
   2.83584     -2.094192
   2.90509     -1.924839
   2.97433     -1.804662
   3.04358     -1.732778
   3.11282     -1.709398
 
# Band-Index   12
   3.11282     -1.709366
   3.04358     -1.611565
   2.97433     -1.464877
   2.90509     -1.337138
   2.83584     -1.239480
   2.76660     -1.174512
   2.69736     -1.142194
   2.62811     -1.139306
   2.55887     -1.165550
   2.48963     -1.218518
   2.42038     -1.297155
   2.35114     -1.399373
   2.28189     -1.521126
   2.21265     -1.658347
   2.14341     -1.806269
   2.07416     -1.957922
   2.00492     -2.105069
   1.93568     -2.234962
   1.86643     -2.329609
   1.79719     -2.364791
   1.79719     -2.364791
   1.76257     -2.356570
   1.72794     -2.334224
   1.69332     -2.302490
   1.65870     -2.265822
   1.62408     -2.227277
   1.58946     -2.190197
   1.55483     -2.156753
   1.52021     -2.127594
   1.48559     -2.103879
   1.45097     -2.085916
   1.41635     -2.073771
   1.38172     -2.066872
   1.34710     -1.901041
   1.31248     -1.729486
   1.27786     -1.571324
   1.24324     -1.428883
   1.20861     -1.310101
   1.17399     -1.223999
   1.13937     -1.189184
   1.13937     -1.189184
   1.07940     -1.200043
   1.01944     -1.229528
   0.95947     -1.278805
   0.89950     -1.347598
   0.83954     -1.435632
   0.77957     -1.540640
   0.71960     -1.659867
   0.65964     -1.683924
   0.59967     -1.585112
   0.53970     -1.485626
   0.47974     -1.394594
   0.41977     -1.322408
   0.35980     -1.280072
   0.29983     -1.276144
   0.23987     -1.315121
   0.17990     -1.394115
   0.11993     -1.505300
   0.05997     -1.631116
   0.00000     -1.709366
 
# Band-Index   13
   0.00000     -0.212551
   0.05997     -0.216795
   0.11993     -0.231229
   0.17990     -0.258844
   0.23987     -0.302996
   0.29983     -0.370121
   0.35980     -0.463002
   0.41977     -0.580828
   0.47974     -0.717036
   0.53970     -0.859420
   0.59967     -0.991593
   0.65964     -1.096330
   0.71960     -1.159181
   0.77957     -1.172651
   0.83954     -1.139176
   0.89950     -1.071408
   0.95947     -0.988471
   1.01944     -0.910606
   1.07940     -0.855791
   1.13937     -0.835468
   1.13937     -0.835468
   1.17399     -0.817884
   1.20861     -0.778215
   1.24324     -0.734064
   1.27786     -0.693889
   1.31248     -0.658377
   1.34710     -0.627590
   1.38172     -0.599244
   1.41635     -0.571545
   1.45097     -0.543538
   1.48559     -0.513786
   1.52021     -0.481231
   1.55483     -0.445520
   1.58946     -0.406835
   1.62408     -0.366261
   1.65870     -0.326009
   1.69332     -0.288118
   1.72794     -0.256787
   1.76257     -0.234987
   1.79719     -0.227294
   1.79719     -0.227294
   1.86643     -0.260903
   1.93568     -0.355289
   2.00492     -0.487591
   2.07416     -0.629909
   2.14341     -0.761704
   2.21265     -0.870682
   2.28189     -0.952231
   2.35114     -1.002794
   2.42038     -1.012064
   2.48963     -0.963305
   2.55887     -0.853611
   2.62811     -0.709099
   2.69736     -0.562239
   2.76660     -0.435929
   2.83584     -0.340919
   2.90509     -0.276917
   2.97433     -0.238168
   3.04358     -0.218293
   3.11282     -0.212551
 
# Band-Index   14
   3.11282      2.553914
   3.04358      2.529873
   2.97433      2.468697
   2.90509      2.391725
   2.83584      2.310206
   2.76660      2.152046
